# Version 1.00
#
freq[Hz];Trc1_S11[dB];
1.000000000000000E+007;2.073366839879535E-001;
2.495000000000000E+007;8.814450126398805E-002;
3.990000000000000E+007;-1.179260730658161E-001;
5.485000000000000E+007;-1.631197028506483E-001;
6.980000000000000E+007;-1.041100113807153E-001;
8.475000000000000E+007;-3.637762465663590E-001;
9.970000000000000E+007;-4.440056475668733E-001;
1.146500000000000E+008;-2.702618118409323E-001;
1.296000000000000E+008;-4.234883564686189E-001;
1.445500000000000E+008;-2.069346232229709E-001;
1.595000000000000E+008;-5.554737366026180E-001;
1.744500000000000E+008;-1.185084713690564E+000;
1.894000000000000E+008;-4.654516940640044E-001;
2.043500000000000E+008;-4.609583142684538E-001;
2.193000000000000E+008;-7.436255556380839E-001;
2.342500000000000E+008;-1.208744504848254E+000;
2.492000000000000E+008;-1.187532195128079E+000;
2.641500000000000E+008;-1.279644717906365E+000;
2.791000000000000E+008;-2.019947768733939E+000;
2.940500000000000E+008;-2.692831059984020E+000;
3.090000000000000E+008;-3.162342114759867E+000;
3.239500000000000E+008;-4.321431297603742E+000;
3.389000000000000E+008;-6.311764390951022E+000;
3.538500000000000E+008;-9.315330237760982E+000;
3.688000000000000E+008;-1.558274687215589E+001;
3.837500000000000E+008;-4.416611718765014E+001;
3.987000000000000E+008;-2.057823840061447E+001;
4.136500000000000E+008;-1.352411652431721E+001;
4.286000000000000E+008;-9.247748118392973E+000;
4.435500000000000E+008;-7.501271229252319E+000;
4.585000000000000E+008;-6.306711659800929E+000;
4.734500000000000E+008;-5.670552174516080E+000;
4.884000000000000E+008;-4.938818278245675E+000;
5.033500000000000E+008;-4.503069382897918E+000;
5.183000000000000E+008;-4.230319874355775E+000;
5.332500000000000E+008;-3.631395521132750E+000;
5.482000000000000E+008;-3.746412439338772E+000;
5.631500000000000E+008;-3.593812918175753E+000;
5.781000000000000E+008;-3.430168768326101E+000;
5.930500000000000E+008;-3.400053457158160E+000;
6.080000000000000E+008;-3.361967216467241E+000;
6.229500000000000E+008;-3.301863050719931E+000;
6.379000000000000E+008;-3.360383737577918E+000;
6.528500000000000E+008;-3.267490584404130E+000;
6.678000000000000E+008;-3.324948067950585E+000;
6.827500000000000E+008;-3.317365686263327E+000;
6.977000000000000E+008;-3.425383585538136E+000;
7.126500000000000E+008;-3.329239871233400E+000;
7.276000000000000E+008;-3.316480641936630E+000;
7.425500000000000E+008;-3.335858764304244E+000;
7.575000000000000E+008;-3.261511875842689E+000;
7.724500000000000E+008;-3.450477685012255E+000;
7.874000000000000E+008;-3.644163403045027E+000;
8.023500000000000E+008;-3.708033960360324E+000;
8.173000000000000E+008;-3.930467458598711E+000;
8.322500000000000E+008;-3.921633451929776E+000;
8.472000000000000E+008;-3.941972841896985E+000;
8.621500000000000E+008;-3.893241098231004E+000;
8.771000000000000E+008;-4.038929907613302E+000;
8.920500000000000E+008;-4.079075479894131E+000;
9.070000000000000E+008;-4.023220819154624E+000;
9.219500000000000E+008;-4.117770658395967E+000;
9.369000000000000E+008;-4.244327192039848E+000;
9.518500000000000E+008;-4.536191524125739E+000;
9.668000000000000E+008;-5.045404548819533E+000;
9.817500000000000E+008;-5.213149729742320E+000;
9.967000000000000E+008;-5.639805256106863E+000;
1.011650000000000E+009;-6.146525065167348E+000;
1.026600000000000E+009;-6.610419359076738E+000;
1.041550000000000E+009;-7.313192807408814E+000;
1.056500000000000E+009;-8.003840921935094E+000;
1.071450000000000E+009;-8.903520167109399E+000;
1.086400000000000E+009;-1.026329122120579E+001;
1.101350000000000E+009;-1.174350118462998E+001;
1.116300000000000E+009;-1.347512516903047E+001;
1.131250000000000E+009;-1.691913667002079E+001;
1.146200000000000E+009;-2.198687846878496E+001;
1.161150000000000E+009;-2.645310080262515E+001;
1.176100000000000E+009;-2.020918417822658E+001;
1.191050000000000E+009;-1.481161560648684E+001;
1.206000000000000E+009;-1.186147028075276E+001;
1.220950000000000E+009;-1.011711408541061E+001;
1.235900000000000E+009;-9.043986493894689E+000;
1.250850000000000E+009;-8.255793678164135E+000;
1.265800000000000E+009;-7.146482288588818E+000;
1.280750000000000E+009;-6.300709240920264E+000;
1.295700000000000E+009;-5.737668627067881E+000;
1.310650000000000E+009;-5.376526131747277E+000;
1.325600000000000E+009;-5.502905825962722E+000;
1.340550000000000E+009;-5.369698689902108E+000;
1.355500000000000E+009;-5.170812662385492E+000;
1.370450000000000E+009;-4.972329691826626E+000;
1.385400000000000E+009;-4.906844752956449E+000;
1.400350000000000E+009;-5.221232216334924E+000;
1.415300000000000E+009;-5.561549952650696E+000;
1.430250000000000E+009;-6.052658383850392E+000;
1.445200000000000E+009;-6.130607274295498E+000;
1.460150000000000E+009;-6.351681098987123E+000;
1.475100000000000E+009;-6.616137821567134E+000;
1.490050000000000E+009;-7.113725198955315E+000;
1.505000000000000E+009;-7.798413158875865E+000;
1.519950000000000E+009;-8.082957864499962E+000;
1.534900000000000E+009;-7.833793689385882E+000;
1.549850000000000E+009;-7.467806371397054E+000;
1.564800000000000E+009;-7.479924702339929E+000;
1.579750000000000E+009;-7.982312277695328E+000;
1.594700000000000E+009;-8.294687450373640E+000;
1.609650000000000E+009;-8.383048934301929E+000;
1.624600000000000E+009;-7.891710969470984E+000;
1.639550000000000E+009;-7.272197884139184E+000;
1.654500000000000E+009;-6.658302953010464E+000;
1.669450000000000E+009;-6.793301321449265E+000;
1.684400000000000E+009;-7.131031922986773E+000;
1.699350000000000E+009;-7.546846772018185E+000;
1.714300000000000E+009;-7.374108889739226E+000;
1.729250000000000E+009;-6.821951941919153E+000;
1.744200000000000E+009;-7.051280972459158E+000;
1.759150000000000E+009;-7.234686234601646E+000;
1.774100000000000E+009;-7.924286332748975E+000;
1.789050000000000E+009;-8.333188498596451E+000;
1.804000000000000E+009;-8.291431670869086E+000;
1.818950000000000E+009;-8.504111465636328E+000;
1.833900000000000E+009;-8.415906722626342E+000;
1.848850000000000E+009;-9.055497422820508E+000;
1.863800000000000E+009;-9.557562619620290E+000;
1.878750000000000E+009;-9.945563894498863E+000;
1.893700000000000E+009;-9.576604267629998E+000;
1.908650000000000E+009;-9.025214002122977E+000;
1.923600000000000E+009;-8.354245896996732E+000;
1.938550000000000E+009;-7.908063077656717E+000;
1.953500000000000E+009;-7.850455452497550E+000;
1.968450000000000E+009;-7.645968940981248E+000;
1.983400000000000E+009;-7.576953708964329E+000;
1.998350000000000E+009;-6.608868302112627E+000;
2.013300000000000E+009;-5.719419862279088E+000;
2.028250000000000E+009;-5.032054938586245E+000;
2.043200000000000E+009;-4.514928652591072E+000;
2.058150000000000E+009;-4.578834949844490E+000;
2.073100000000000E+009;-4.219855666450220E+000;
2.088050000000000E+009;-3.902247867536052E+000;
2.103000000000000E+009;-3.380805351567602E+000;
2.117950000000000E+009;-3.000462419686927E+000;
2.132900000000000E+009;-3.122820822591347E+000;
2.147850000000000E+009;-3.121659198539134E+000;
2.162800000000000E+009;-3.389731232833392E+000;
2.177750000000000E+009;-3.098232819106982E+000;
2.192700000000000E+009;-2.863224528126551E+000;
2.207650000000000E+009;-2.653530728655102E+000;
2.222600000000000E+009;-2.945278773316630E+000;
2.237550000000000E+009;-3.496483200205590E+000;
2.252500000000000E+009;-3.636241496408649E+000;
2.267450000000000E+009;-3.797658255673785E+000;
2.282400000000000E+009;-3.089505681092709E+000;
2.297350000000000E+009;-3.041155877304631E+000;
2.312300000000000E+009;-2.957575961516146E+000;
2.327250000000000E+009;-3.544111711777584E+000;
2.342200000000000E+009;-4.047179966518985E+000;
2.357150000000000E+009;-3.997110763996718E+000;
2.372100000000000E+009;-3.934089134190507E+000;
2.387050000000000E+009;-3.131766306241945E+000;
2.402000000000000E+009;-3.191867694043790E+000;
2.416950000000000E+009;-3.101972688879600E+000;
2.431900000000000E+009;-3.332170299326875E+000;
2.446850000000000E+009;-3.459167533348961E+000;
2.461800000000000E+009;-2.844445645207621E+000;
2.476750000000000E+009;-2.602586861625374E+000;
2.491700000000000E+009;-2.124792371543016E+000;
2.506650000000000E+009;-2.621028229439318E+000;
2.521600000000000E+009;-2.956114240308348E+000;
2.536550000000000E+009;-3.144878534796814E+000;
2.551500000000000E+009;-2.812763678602786E+000;
2.566450000000000E+009;-2.283211443055894E+000;
2.581400000000000E+009;-2.195936248012572E+000;
2.596350000000000E+009;-2.437038669037113E+000;
2.611300000000000E+009;-3.347488459620267E+000;
2.626250000000000E+009;-3.596505898422971E+000;
2.641200000000000E+009;-3.735785030048028E+000;
2.656150000000000E+009;-3.068886148727087E+000;
2.671100000000000E+009;-2.820200759907611E+000;
2.686050000000000E+009;-2.949374812362853E+000;
2.701000000000000E+009;-3.037108141224196E+000;
2.715950000000000E+009;-3.693930732399789E+000;
2.730900000000000E+009;-3.557993713462210E+000;
2.745850000000000E+009;-3.612853020562406E+000;
2.760800000000000E+009;-3.273035187987333E+000;
2.775750000000000E+009;-3.088399534042429E+000;
2.790700000000000E+009;-3.554071893352052E+000;
2.805650000000000E+009;-3.641846288229824E+000;
2.820600000000000E+009;-3.755825999354660E+000;
2.835550000000000E+009;-3.209802653052226E+000;
2.850500000000000E+009;-3.106134721395478E+000;
2.865450000000000E+009;-3.184079116760124E+000;
2.880400000000000E+009;-3.260799930085553E+000;
2.895350000000000E+009;-3.442364195368490E+000;
2.910300000000000E+009;-3.091273801723188E+000;
2.925250000000000E+009;-2.878766167027373E+000;
2.940200000000000E+009;-2.417990480208324E+000;
2.955150000000000E+009;-2.397046748876161E+000;
2.970100000000000E+009;-2.469168172021629E+000;
2.985050000000000E+009;-2.588551670264490E+000;
3.000000000000000E+009;-2.519704593592340E+000;
